time	pitch	intensity	formant1	formant2	formant3	formant4
0	--undefined--	--undefined--	--undefined--	--undefined--	--undefined--	--undefined--
0.010	--undefined--	--undefined--	--undefined--	--undefined--	--undefined--	--undefined--
0.020	469.31	--undefined--	--undefined--	--undefined--	--undefined--	--undefined--
0.030	469.10	49.28	1791.92	2708.22	3052.38	4282.12
0.040	468.94	49.30	1794.72	2714.20	3067.51	4406.80
0.050	400.88	47.71	1796.13	2722.17	3201.97	4411.34
0.060	399.96	46.14	1720.34	2740.28	3202.63	4412.80
0.070	400.10	43.79	1185.54	2746.93	3200.48	4519.89
0.080	--undefined--	39.53	1342.79	2435.50	3127.70	4149.70
0.090	--undefined--	39.33	1399.30	1813.56	2768.17	3733.67
0.100	199.80	41.91	1389.13	1804.57	2818.00	3238.92
0.110	199.65	42.22	1319.27	2662.80	3122.51	4364.12
0.120	207.07	41.93	340.94	2136.42	3112.46	4287.67
0.130	206.99	40.57	437.34	2745.84	3212.24	4388.00
0.140	--undefined--	38.02	442.82	2731.00	3569.75	4507.89
0.150	--undefined--	36.79	1590.91	3061.97	3590.40	4258.96
0.160	--undefined--	39.01	1227.75	2765.79	3196.12	3688.44
0.170	--undefined--	41.03	1196.48	2830.71	3198.74	4224.03
0.180	--undefined--	40.44	1197.49	2846.03	3200.96	4357.93
0.190	--undefined--	39.34	1338.95	2854.92	3201.47	4370.32
0.200	--undefined--	40.14	1393.09	3042.77	3202.28	4807.16
0.210	444.46	41.71	1276.47	2769.77	3202.04	5220.38
0.220	444.23	41.14	2020.44	3030.97	4231.12	5118.83
0.230	--undefined--	38.87	2711.41	2947.53	4231.07	--undefined--
0.240	--undefined--	36.98	2441.18	2721.68	3193.60	4677.68
0.250	--undefined--	38.88	2644.75	2732.81	3767.52	4563.81
0.260	444.55	43.03	2700.20	2742.35	4394.83	4563.93
0.270	444.71	44.63	2693.55	2745.35	4390.91	4545.07
0.280	398.92	43.10	1067.61	2718.03	3104.30	4404.36
0.290	398.95	42.34	1197.67	2722.90	3201.78	4370.45
0.300	399.84	41.78	1196.71	2719.13	3198.12	4362.01
0.310	--undefined--	39.20	1189.49	2771.19	3207.16	4424.11
0.320	--undefined--	38.18	655.38	2003.76	3250.74	4023.41
0.330	--undefined--	38.31	446.71	1414.68	3098.29	3366.20
0.340	--undefined--	38.79	221.99	1405.12	2734.86	3200.96
0.350	150.73	43.07	464.61	2130.47	2830.66	3162.91
0.360	150.82	46.26	440.83	2694.09	2752.78	4344.24
0.370	150.96	46.09	1971.25	2708.48	3897.58	4477.33
0.380	151.07	43.06	1434.72	2607.10	3044.67	4403.48
0.390	--undefined--	39.91	1292.47	1904.63	3194.28	4330.18
0.400	--undefined--	39.69	1298.93	2443.34	3188.56	3604.52
0.410	449.45	42.44	1453.92	2715.78	3083.47	3660.56
0.420	449.60	42.32	2689.99	2736.49	3277.94	3843.20
0.430	--undefined--	38.29	2679.75	2714.19	3089.89	3627.63
0.440	--undefined--	37.34	2764.05	2789.24	3188.20	3630.50
0.450	--undefined--	40.26	2358.88	3172.46	3212.22	4360.66
0.460	469.19	43.26	3172.68	3219.61	4358.91	--undefined--
0.470	469.61	44.51	2044.20	3194.13	3578.94	4359.82
0.480	469.73	43.88	1459.34	3168.23	3223.45	4381.09
0.490	399.25	44.91	1959.20	3165.91	3217.27	4437.61
0.500	399.85	46.56	1922.96	2948.18	3197.44	4439.81
0.510	399.94	45.41	1290.38	2643.21	3151.49	4317.40
0.520	382.11	42.58	1311.76	1967.66	2723.41	3785.10
0.530	382.96	42.54	1548.14	2178.86	3265.49	4453.93
0.540	382.94	44.52	1800.02	2757.49	4511.49	4555.36
0.550	383.20	46.72	1807.61	2732.92	4221.53	4548.02
0.560	383.30	47.69	1849.80	2904.07	3448.53	4549.13
0.570	421.65	45.67	858.63	2205.88	3451.38	4498.69
0.580	444.85	40.90	970.33	2154.61	3199.77	4483.06
0.590	444.07	40.19	1943.50	2802.93	3346.57	4871.28
0.600	443.96	43.16	2716.03	3187.67	4560.42	4872.24
0.610	443.96	43.70	428.36	2735.20	3197.71	4550.56
0.620	--undefined--	40.79	444.30	2865.77	3199.28	4569.30
0.630	--undefined--	36.68	442.76	2159.51	2901.93	4389.11
0.640	--undefined--	37.85	372.57	2142.56	2198.72	4516.24
0.650	--undefined--	39.13	2141.96	2186.10	4556.12	4725.62
0.660	--undefined--	38.64	609.93	2249.07	3222.63	4558.42
0.670	--undefined--	38.35	1159.09	1859.56	3556.76	4353.72
0.680	400.12	41.23	954.66	1387.12	3199.09	4192.62
0.690	400.05	41.82	1172.25	3007.44	4095.26	4370.84
0.700	--undefined--	39.59	1243.63	3196.93	3692.53	4386.05
0.710	531.89	42.56	3174.23	3226.72	4550.59	--undefined--
0.720	529.78	44.83	3172.89	3224.10	4477.87	4559.79
0.730	527.11	42.61	2773.79	3177.51	3230.13	4558.57
0.740	--undefined--	37.49	2552.21	2752.88	3200.75	4555.50
0.750	--undefined--	36.69	2420.91	2704.38	3176.71	4557.24
0.760	--undefined--	40.15	2459.29	2742.20	3200.19	4554.57
0.770	--undefined--	41.31	2705.87	3111.83	3204.19	--undefined--
0.780	400.96	42.62	1365.75	2726.72	3196.35	4067.15
0.790	401.62	45.24	1399.13	2804.37	3188.46	4556.01
0.800	401.75	46.77	1403.39	3082.08	3188.69	4544.77
0.810	383.09	46.08	2715.21	3134.39	4475.82	4741.83
0.820	228.19	44.87	2698.12	2769.78	4318.77	4610.86
0.830	227.82	44.74	2700.92	2756.08	3386.51	4257.50
0.840	227.97	43.23	2730.89	3004.98	3606.50	4460.68
0.850	227.87	40.91	2721.87	3032.26	3651.28	4555.41
0.860	228.02	41.41	831.94	2726.83	3729.32	4553.28
0.870	227.77	43.43	1275.41	2129.62	3215.23	4373.51
0.880	210.52	44.96	1275.59	2350.43	3027.25	4139.08
0.890	210.68	44.37	1277.29	1469.35	2718.36	3149.86
0.900	--undefined--	41.32	1279.49	1766.85	2719.41	3835.57
0.910	241.75	41.83	1326.81	2837.24	3068.71	4628.01
0.920	241.81	43.88	1713.83	3196.50	4574.65	5333.79
0.930	241.85	43.05	1280.97	3073.10	3617.17	4710.52
0.940	--undefined--	39.62	1278.90	2719.62	3199.69	4727.47
0.950	--undefined--	36.89	1278.34	2717.21	3162.63	4551.92
0.960	--undefined--	36.90	1229.56	2759.28	3040.90	4393.92
0.970	--undefined--	39.62	2711.53	3172.74	4293.17	4548.24
0.980	227.69	43.33	2710.05	2896.03	3348.99	4553.89
0.990	227.47	44.05	2710.41	2852.75	3403.14	4607.74
1.000	169.18	42.67	2708.30	3173.89	4030.55	4839.98
1.010	168.43	41.24	2709.92	3196.62	4533.15	4872.16
1.020	--undefined--	37.98	2730.47	3199.75	4544.71	4872.46
1.030	--undefined--	34.34	2717.58	3145.99	4563.93	4701.84
1.040	--undefined--	35.65	2715.64	3182.40	4548.12	4648.27
1.050	--undefined--	40.24	2929.19	3192.54	4562.98	4628.57
1.060	400.78	44.34	3175.91	3209.97	4373.23	4725.34
1.070	399.04	45.82	3181.31	3211.18	4356.55	4726.13
1.080	397.77	44.39	3190.75	3231.12	4356.79	4658.02
1.090	--undefined--	40.47	2356.57	3193.10	4347.53	4531.73
1.100	--undefined--	37.17	1797.17	2993.62	3723.27	4537.55
1.110	--undefined--	36.45	1795.96	2309.33	3185.36	4557.07
1.120	--undefined--	36.07	1796.50	2638.30	3136.50	4559.86
1.130	--undefined--	36.22	1796.87	2698.34	3201.81	4425.00
1.140	--undefined--	39.97	1815.04	2984.83	3221.63	4438.33
1.150	469.25	43.19	1792.23	2874.06	4319.37	4653.06
1.160	444.30	43.88	1796.58	2221.37	4469.45	4877.19
1.170	444.23	43.45	1762.54	1826.53	3582.90	4853.91
1.180	444.21	41.34	1254.49	2155.20	3171.39	4871.91
1.190	--undefined--	40.08	1828.64	2894.37	3201.82	4872.83
1.200	--undefined--	40.30	1691.43	3034.44	3204.50	5223.29
1.210	--undefined--	38.18	2714.14	3188.01	4811.67	--undefined--
1.220	--undefined--	37.03	2710.09	3013.92	4226.02	4831.60
1.230	--undefined--	40.10	2711.59	3173.01	3666.92	4821.97
1.240	399.93	42.75	2713.39	3196.01	3547.15	4427.76
1.250	400.67	42.30	2739.60	3195.85	3704.87	4370.55
1.260	--undefined--	40.62	2716.00	3197.24	4396.92	4540.25
1.270	--undefined--	40.74	2717.93	3166.63	4554.62	4812.66
1.280	--undefined--	40.23	3129.79	3197.16	4522.72	--undefined--
1.290	--undefined--	38.71	3175.09	3221.43	4404.68	--undefined--
1.300	--undefined--	37.97	803.98	3193.00	3667.94	4399.92
1.310	--undefined--	40.97	904.40	1318.56	3350.06	4399.21
1.320	257.77	43.06	1282.57	1404.62	3433.84	4485.94
1.330	228.32	43.01	1321.29	2163.03	3179.11	4557.05
1.340	228.48	41.36	1393.02	2673.05	3189.97	4560.80
1.350	--undefined--	38.45	1392.84	2743.18	3193.59	4584.12
1.360	--undefined--	36.96	1395.41	2637.02	3190.95	4776.99
1.370	--undefined--	38.91	1396.32	2168.26	2780.85	3637.23
1.380	--undefined--	40.75	1395.43	2144.28	2723.67	3201.38
1.390	468.13	43.08	1397.61	2403.70	2732.55	3201.49
1.400	497.03	43.87	1402.87	2724.07	3198.14	4876.87
1.410	496.32	43.00	1404.06	2369.13	3269.85	4857.56
1.420	496.58	43.66	1408.40	3159.97	4414.66	4878.72
1.430	471.39	44.08	955.17	2721.54	3196.21	4373.54
1.440	471.03	41.64	2720.62	3160.95	3319.59	4656.96
1.450	533.37	41.36	2719.56	3201.10	3344.29	4836.88
1.460	533.29	42.07	2716.47	3202.86	3439.19	4689.95
1.470	532.06	41.05	1126.16	2878.50	3281.81	4551.32
1.480	529.54	40.87	440.43	2786.76	3210.17	4523.24
1.490	569.56	41.32	457.48	2714.46	3148.48	4554.23
1.500	567.87	41.68	1257.05	2723.18	3210.29	4555.37
1.510	--undefined--	40.43	1281.41	2481.37	3171.51	3776.34
1.520	--undefined--	38.70	1276.62	1815.19	3172.16	3598.59
1.530	--undefined--	37.63	1202.96	1807.49	3103.22	3208.66
1.540	--undefined--	36.46	1740.69	3029.66	3163.78	4420.77
1.550	--undefined--	38.80	791.19	2761.54	3193.17	4557.15
1.560	--undefined--	41.34	1276.71	2063.07	3143.87	3324.07
1.570	470.86	43.60	1271.46	2043.84	2859.11	4008.63
1.580	470.05	45.42	1083.45	2364.41	2809.46	3963.83
1.590	444.23	45.27	2406.51	2718.88	3152.84	4359.12
1.600	444.29	44.01	1728.01	2739.01	3199.26	4347.63
1.610	444.41	41.52	1280.04	3190.29	3455.94	4363.91
1.620	--undefined--	39.76	1279.13	3190.13	4279.39	4362.25
1.630	--undefined--	40.48	1272.16	2026.60	3195.19	4317.66
1.640	--undefined--	40.25	1270.15	2724.10	3206.60	4357.11
1.650	--undefined--	40.13	1276.89	2724.49	3200.03	4342.68
1.660	--undefined--	39.25	1267.08	2737.61	3200.37	4538.79
1.670	--undefined--	36.92	1317.70	2715.80	3152.07	4591.09
1.680	--undefined--	34.71	1397.54	2638.51	3550.50	4389.93
1.690	--undefined--	37.62	1399.97	3121.88	3672.71	4565.09
1.700	400.14	42.05	1341.35	2646.59	3426.84	4366.51
1.710	399.66	42.79	1298.86	1898.42	3200.54	4351.63
1.720	400.00	39.97	1236.61	1880.23	3200.19	4359.46
1.730	--undefined--	39.65	1878.99	3190.54	4048.31	4697.09
1.740	228.13	42.82	1877.07	3200.84	3521.07	3651.92
1.750	228.08	43.63	1853.39	2771.73	3210.98	4687.78
1.760	228.08	41.44	1699.37	2642.50	3151.90	4701.96
1.770	--undefined--	40.54	1390.40	1966.31	3040.96	4395.06
1.780	469.16	42.30	1820.33	1905.26	3204.59	4385.03
1.790	469.48	41.70	1406.22	1877.41	3338.57	4359.80
1.800	--undefined--	38.21	990.27	2266.15	3174.23	4245.51
1.810	--undefined--	35.44	2448.27	3148.58	3481.43	4310.55
1.820	--undefined--	38.61	171.18	2707.06	3193.36	4126.43
1.830	381.44	43.84	2709.40	3197.53	4148.92	4549.54
1.840	381.38	46.46	2216.53	3013.77	3266.93	4554.27
1.850	364.01	46.33	1405.08	2157.67	2897.51	3600.97
1.860	364.09	45.64	1404.50	2157.06	2299.27	3202.67
1.870	364.11	44.74	1572.22	2158.57	3004.89	4374.89
1.880	348.70	43.48	1653.70	2467.47	3233.11	4878.55
1.890	349.83	42.64	414.50	3149.25	3215.68	4854.48
1.900	350.90	41.70	2771.32	3197.44	3854.83	4747.55
1.910	350.48	41.91	1641.60	2706.55	3199.68	4349.82
1.920	350.18	42.63	1793.08	2678.82	3008.30	4313.32
1.930	350.41	42.24	1797.29	2428.61	2972.84	3640.31
1.940	--undefined--	40.99	1836.08	2578.53	3205.01	4379.12
1.950	528.84	41.65	1301.54	2873.52	3203.39	4361.39
1.960	528.10	41.13	1116.82	2729.44	3198.56	4376.27
1.970	527.02	41.73	2018.76	3021.06	4015.05	5083.54
1.980	527.36	42.74	2719.03	3156.46	4123.48	5313.08
1.990	529.39	41.84	2354.58	3081.94	3211.83	5310.50
2.000	--undefined--	40.38	2153.71	2471.73	3152.07	5311.45
2.010	--undefined--	38.34	1670.69	2266.73	3062.15	3961.49
2.020	--undefined--	35.23	1403.67	1822.47	2904.53	4074.20
2.030	--undefined--	34.09	1773.79	1849.56	3804.82	4557.01
2.040	--undefined--	34.45	1748.81	2631.03	4535.21	4653.23
2.050	--undefined--	36.69	1291.62	2722.68	3962.63	4563.09
2.060	--undefined--	38.69	1277.62	2724.27	2811.17	4468.66
2.070	--undefined--	38.56	1277.25	2714.74	3162.30	4560.93
2.080	--undefined--	40.71	1320.03	2578.54	3170.05	4502.10
2.090	469.19	45.18	1406.76	2655.86	3188.87	4405.56
2.100	469.29	47.68	1347.16	2716.12	3209.31	4483.79
2.110	469.49	47.44	466.82	2341.71	2729.66	4196.76
2.120	469.60	44.57	418.18	2720.98	2910.16	4363.92
2.130	--undefined--	40.72	2715.49	3197.11	4372.99	--undefined--
2.140	--undefined--	38.64	2717.74	3198.57	4397.74	4635.80
2.150	--undefined--	39.81	2717.92	3194.13	4404.97	4839.64
2.160	--undefined--	41.10	2728.73	3124.61	4496.24	4872.29
2.170	527.77	42.16	1543.24	2872.76	3597.11	4505.50
2.180	530.29	43.22	1441.41	2584.27	3076.45	3436.49
2.190	532.66	43.14	1795.98	2674.38	3159.76	4421.93
2.200	--undefined--	40.98	1803.96	2734.39	3231.37	4519.72
2.210	--undefined--	39.99	1876.93	2844.63	4330.12	4516.18
2.220	--undefined--	41.57	1223.94	2708.66	3207.87	4381.94
2.230	--undefined--	41.01	1399.22	2711.99	3181.72	4034.69
2.240	--undefined--	39.33	1396.06	2690.30	2761.56	3208.92
2.250	--undefined--	36.83	1397.56	2713.16	3168.07	3778.57
2.260	--undefined--	36.02	1539.96	2852.59	3482.32	4380.21
2.270	--undefined--	39.43	2714.06	3198.25	4376.22	4777.89
2.280	444.13	42.30	2716.94	3142.99	4291.16	4391.10
2.290	444.44	42.14	2712.18	2933.38	4083.39	4420.74
2.300	--undefined--	40.19	2713.84	2840.79	3214.03	4982.54
2.310	--undefined--	39.82	2396.75	2723.34	3196.68	4888.44
2.320	--undefined--	39.87	1278.03	2699.37	3196.66	4878.90
2.330	--undefined--	39.16	1290.29	2680.04	3199.51	4880.55
2.340	--undefined--	36.36	1813.10	2704.56	3201.38	4883.14
2.350	--undefined--	35.70	1345.77	1880.27	2844.20	3208.57
2.360	--undefined--	37.59	1277.17	1892.01	3185.10	3223.92
2.370	--undefined--	39.78	1253.38	2510.49	3165.86	4040.70
2.380	--undefined--	41.34	1231.68	2489.50	2793.29	3349.82
2.390	--undefined--	40.94	1333.21	2320.60	2864.65	4328.50
2.400	--undefined--	39.48	1528.13	2711.57	2841.44	4518.26
2.410	--undefined--	39.07	1257.51	2702.83	2776.44	4557.63
2.420	--undefined--	39.04	1276.98	2519.88	2719.77	4557.64
2.430	469.49	41.03	1261.56	2718.25	2896.04	4585.82
2.440	--undefined--	40.76	1203.12	2754.15	2905.22	4664.68
2.450	--undefined--	39.66	1197.53	2798.25	2964.43	4587.88
2.460	351.61	41.78	1196.91	2794.74	3019.69	4518.85
2.470	351.18	42.33	1176.25	2775.06	3165.81	4555.69
2.480	351.02	41.54	1771.95	2732.34	3200.35	4478.22
2.490	--undefined--	41.29	1798.27	2718.25	3198.62	4407.03
2.500	--undefined--	40.85	1797.03	2501.94	2919.26	4397.13
2.510	--undefined--	40.92	1801.30	2042.79	2720.71	4440.01
2.520	469.37	42.55	1862.60	2029.61	2744.52	4552.32
2.530	469.37	42.72	1806.61	2018.59	3118.86	4551.59
2.540	--undefined--	39.48	1795.11	2417.42	3194.35	4549.97
2.550	--undefined--	36.67	1792.32	2742.65	3207.39	4554.34
2.560	--undefined--	36.66	1812.34	2749.18	3000.86	4526.14
2.570	--undefined--	36.81	2487.33	2888.36	3483.08	4401.59
2.580	--undefined--	36.68	2711.97	2942.95	4405.49	4617.07
2.590	--undefined--	36.52	2717.92	2744.07	4549.43	4886.02
2.600	--undefined--	38.38	2709.40	2922.24	4441.17	4828.75
2.610	--undefined--	40.26	599.20	2663.68	2888.50	4394.53
2.620	399.64	40.97	1787.84	2753.27	2857.87	4394.79
2.630	399.78	41.56	1801.33	2733.09	3222.25	4414.87
2.640	531.87	42.92	2626.31	3148.63	3907.55	5220.55
2.650	531.70	42.86	214.18	2709.46	3176.39	4172.14
2.660	--undefined--	41.34	1102.00	2690.26	3117.68	4393.24
2.670	--undefined--	41.56	1744.31	2600.63	3165.42	4399.38
2.680	--undefined--	40.76	1445.69	2310.05	2947.65	4160.17
2.690	--undefined--	39.95	1315.83	1961.34	2737.05	3706.06
2.700	--undefined--	40.43	1375.30	2184.50	2948.71	3877.48
2.710	--undefined--	39.93	1081.19	2726.72	3188.46	4558.30
2.720	--undefined--	39.73	1192.38	3088.27	4053.88	4560.22
2.730	400.31	41.85	1113.98	3127.42	4093.21	5040.42
2.740	400.20	43.03	2603.58	3186.59	4279.14	5224.19
2.750	400.61	42.55	2672.56	2962.26	3792.86	4896.19
2.760	400.53	42.49	1090.20	2716.28	2800.90	3345.97
2.770	--undefined--	40.60	1250.85	2720.40	3061.63	4557.36
2.780	--undefined--	39.44	1271.29	2724.36	3205.21	4557.93
2.790	215.91	42.62	1276.76	2709.26	3210.57	4559.38
2.800	215.78	44.15	1206.93	1997.45	2958.94	3893.95
2.810	216.10	44.24	1278.70	2718.04	3196.16	4539.26
2.820	228.13	44.99	1198.37	2753.70	3196.65	4352.46
2.830	228.45	45.10	2299.56	3158.68	4002.51	4453.92
2.840	242.30	44.82	1309.31	2481.40	3192.69	4323.68
2.850	242.41	42.71	1396.30	2692.35	3199.88	4301.82
2.860	--undefined--	38.65	1405.58	2061.00	2752.20	4338.48
2.870	--undefined--	38.86	1683.26	2435.78	3104.72	4492.61
2.880	448.84	42.88	1797.71	2695.99	3227.38	3664.76
2.890	471.29	44.70	1793.32	2630.42	3170.67	3732.73
2.900	470.53	43.84	2260.49	3182.65	3991.52	4573.67
2.910	468.88	42.40	2706.35	2957.71	4328.03	4865.52
2.920	--undefined--	40.37	2354.30	2721.55	3514.67	4492.68
2.930	--undefined--	39.13	2206.80	2857.31	3255.93	4359.82
2.940	--undefined--	38.81	2202.00	3201.43	3646.98	4394.39
2.950	--undefined--	36.00	1420.49	3201.37	3692.38	4427.27
2.960	--undefined--	34.81	1400.65	1961.48	3121.45	3278.09
2.970	--undefined--	38.17	1401.16	2426.97	3071.03	4150.60
2.980	160.03	41.19	1152.74	2722.93	3206.18	4485.60
2.990	159.97	40.97	315.63	2714.81	3190.72	3961.56
3.000	--undefined--	38.23	1493.94	2768.58	3158.82	4360.61
3.010	--undefined--	37.84	2314.98	2753.31	3343.88	4891.27
3.020	350.96	40.48	1066.62	2812.67	3432.52	4921.85
3.030	350.97	39.64	713.86	2727.31	2928.52	4877.52
3.040	--undefined--	38.14	1820.97	2740.43	3107.72	5217.90
3.050	444.53	41.14	1612.52	1896.76	2724.74	4376.17
3.060	445.51	42.61	1715.07	2710.43	3698.62	4435.99
3.070	448.80	42.64	2092.02	2691.78	3872.57	4496.49
3.080	451.21	42.24	2014.61	2731.97	4010.00	4554.49
3.090	350.90	42.38	442.94	2717.67	2991.35	4195.10
3.100	351.45	44.13	442.77	2729.44	3203.28	4009.73
3.110	351.55	44.27	442.98	3075.19	3208.52	4359.36
3.120	351.02	44.65	444.76	3183.96	3224.21	4361.75
3.130	351.19	45.35	1942.11	3179.49	3232.75	4359.44
3.140	351.57	44.63	1309.77	1930.66	3205.45	3395.12
3.150	--undefined--	41.62	1277.05	1777.93	3203.56	3225.54
3.160	--undefined--	39.40	1278.64	1793.00	2634.31	3209.78
3.170	--undefined--	40.42	1280.85	2159.05	2931.56	3215.11
3.180	470.59	41.78	1219.42	2355.73	2946.59	3551.47
3.190	470.24	42.49	2535.00	2782.91	3203.67	4359.82
3.200	469.59	42.41	2712.23	3078.53	3355.72	4365.09
3.210	469.48	42.02	2627.72	3179.57	3378.19	4375.91
3.220	497.45	42.39	1887.37	2824.91	4361.11	4720.65
3.230	496.18	43.44	1885.29	2721.25	4390.17	4863.46
3.240	468.66	45.27	2635.63	2724.08	4420.01	--undefined--
3.250	469.20	45.21	2710.14	2832.73	3211.37	4405.00
3.260	--undefined--	41.68	1184.70	2728.83	3174.41	4387.79
3.270	--undefined--	37.88	1198.85	2720.63	3179.34	4452.97
3.280	--undefined--	36.73	1205.78	2393.38	3109.31	3840.83
3.290	--undefined--	36.72	1209.32	1874.43	2768.13	3309.75
3.300	--undefined--	35.19	1838.88	2020.24	2749.14	4678.77
3.310	--undefined--	35.73	1824.18	2810.61	4545.70	--undefined--
3.320	--undefined--	37.35	2514.15	2858.67	3244.26	5205.17
3.330	--undefined--	39.28	1893.67	3168.79	3222.90	5312.84
3.340	277.58	42.74	2034.19	2584.27	3204.98	4483.10
3.350	295.43	43.77	2036.26	2494.39	3831.35	4484.64
3.360	295.99	41.70	2035.91	2717.70	4413.44	4532.40
3.370	349.46	40.08	2481.30	3056.59	4500.80	4670.90
3.380	349.83	40.59	3009.54	3200.03	4545.73	4562.98
3.390	--undefined--	38.87	3135.01	3206.54	4541.48	4577.64
3.400	--undefined--	39.95	1814.62	3204.95	4013.86	4559.40
3.410	570.74	42.31	1377.72	3156.92	3625.88	4559.92
3.420	--undefined--	41.59	1291.23	2798.93	4552.35	4568.40
3.430	--undefined--	38.41	1304.06	2801.22	4333.58	4560.56
3.440	--undefined--	35.41	2673.89	3161.26	4352.58	4553.64
3.450	--undefined--	37.18	2830.10	3142.70	3252.89	4444.16
3.460	--undefined--	38.84	2742.95	3138.74	3191.31	4438.19
3.470	--undefined--	38.36	1801.85	3138.76	3200.09	4558.88
3.480	--undefined--	37.14	1592.42	3169.94	3253.19	4506.15
3.490	--undefined--	37.31	1703.46	3207.15	3343.28	4388.93
3.500	--undefined--	37.86	1944.89	3148.00	3208.23	4394.58
3.510	--undefined--	36.32	1540.92	2912.68	3213.55	4362.54
3.520	--undefined--	36.62	1281.30	2583.13	3203.51	4334.60
3.530	--undefined--	37.75	1279.83	1856.00	2841.54	3220.26
3.540	--undefined--	39.38	1400.86	2220.35	2773.07	3191.16
3.550	--undefined--	41.41	511.15	2344.22	3158.54	4198.59
3.560	444.00	43.02	1158.43	2893.15	3209.60	4348.68
3.570	444.23	41.92	1184.48	2721.21	3201.99	4326.98
3.580	--undefined--	41.47	1631.60	2707.95	3191.62	4357.89
3.590	445.70	45.52	2677.36	2730.03	3244.78	4359.26
3.600	445.57	47.37	2581.45	2722.86	3198.36	4374.04
3.610	445.20	45.31	1795.27	2680.87	3150.58	3271.73
3.620	--undefined--	41.79	1794.14	1985.93	2728.17	3205.02
3.630	--undefined--	41.29	1776.47	1833.76	2940.34	3202.13
3.640	399.75	43.55	1791.23	2646.48	2799.00	3199.31
3.650	399.80	44.62	1796.90	2720.06	3188.66	4031.82
3.660	400.27	42.13	1780.00	2723.82	3128.85	4519.09
3.670	401.57	41.13	2395.22	3052.44	3409.89	4557.78
3.680	383.59	42.55	2570.87	2864.67	3196.65	4556.71
3.690	384.28	43.96	1936.17	2733.00	3087.23	4544.29
3.700	384.15	45.10	1876.64	2707.95	2771.76	4428.17
3.710	495.52	45.90	1816.24	2717.19	3023.44	4097.73
3.720	496.04	46.18	1227.66	2712.39	3179.83	4388.11
3.730	526.18	44.35	1250.59	2714.95	3033.73	4398.76
3.740	556.12	39.91	1263.97	2641.03	2737.54	4344.61
3.750	--undefined--	37.79	1294.72	2556.10	2767.79	4398.56
3.760	349.78	40.48	1315.69	2252.33	2804.82	4379.92
3.770	399.84	41.72	2156.80	2807.54	3321.36	4361.57
3.780	400.65	42.13	2361.24	2955.60	3551.40	4543.06
3.790	400.49	42.74	2771.33	3195.68	4132.80	4940.13
3.800	399.49	42.48	2431.29	2951.69	3221.32	4895.42
3.810	451.24	44.02	1870.10	2714.80	3171.22	4632.80
3.820	452.25	45.21	1846.66	2716.68	3085.60	3587.17
3.830	449.56	43.04	2032.83	2931.18	3197.94	4406.27
3.840	--undefined--	39.01	444.51	2718.24	3180.47	4407.72
3.850	--undefined--	37.83	501.10	1409.42	2528.94	4606.71
3.860	--undefined--	38.63	1305.17	1403.57	2717.65	4722.25
3.870	--undefined--	39.51	1397.89	1761.51	2717.76	4606.86
3.880	444.04	41.12	1396.13	2713.61	3122.03	4314.59
3.890	400.83	43.04	853.49	2710.89	3201.66	4261.11
3.900	401.11	43.59	2718.30	3200.09	4231.32	4392.68
3.910	401.25	40.91	2551.65	3159.79	4190.42	4397.19
3.920	--undefined--	38.75	1155.01	2720.53	3484.28	4474.10
3.930	--undefined--	39.06	1159.74	2294.37	3320.02	4530.99
3.940	--undefined--	39.04	1158.48	2576.85	3185.13	4619.74
3.950	--undefined--	41.62	1921.02	2921.59	3198.20	4676.93
3.960	528.38	45.77	2717.31	3196.55	3480.96	4657.94
3.970	527.79	47.16	2756.98	3196.35	3878.38	4557.60
3.980	527.87	44.91	2696.53	3193.18	4155.01	4593.56
3.990	--undefined--	41.20	1797.62	3128.26	3211.41	4532.17
4.000	470.57	42.74	1798.56	3193.67	3334.65	4505.00
4.010	470.64	43.86	1799.16	3190.83	3392.86	4523.03
4.020	--undefined--	41.74	745.15	3159.17	3211.32	4552.26
4.030	--undefined--	38.62	436.21	3169.17	3217.36	4554.89
4.040	--undefined--	35.43	429.28	3029.52	3198.71	4557.08
4.050	--undefined--	35.33	955.88	2237.49	3575.95	4556.91
4.060	--undefined--	39.51	1580.68	2710.11	3404.22	4520.55
4.070	--undefined--	42.85	1255.57	2697.88	2763.92	4317.80
4.080	--undefined--	42.70	769.29	2688.82	2749.11	4327.33
4.090	--undefined--	38.80	1197.69	2689.68	2753.02	4369.50
4.100	--undefined--	35.31	2687.56	2750.59	4961.84	--undefined--
4.110	--undefined--	35.23	2700.64	2808.98	4525.21	5315.69
4.120	--undefined--	37.10	1631.71	2760.91	3291.61	4706.07
4.130	402.64	41.74	1901.95	2744.21	3228.16	4374.29
4.140	403.13	44.64	1879.06	2780.33	3203.52	4357.85
4.150	402.51	43.33	1878.01	3036.39	3546.60	4372.21
4.160	336.86	43.56	1650.05	2054.91	3302.10	4267.38
4.170	336.99	44.43	2716.26	3167.57	4351.43	4380.19
4.180	528.21	42.86	2710.62	3195.75	3805.50	4385.90
4.190	532.45	41.54	2714.71	3195.71	4312.42	4722.86
4.200	533.11	41.41	2715.53	3187.70	4159.80	4425.30
4.210	534.37	42.75	2714.89	3174.12	3738.67	4358.83
4.220	537.68	44.84	2717.62	2984.13	3279.79	4365.74
4.230	539.28	45.35	2717.73	2818.34	3406.63	4369.14
4.240	537.94	43.83	2723.54	3087.25	3631.36	4359.60
4.250	--undefined--	41.44	2722.82	3153.73	4115.35	4355.97
4.260	529.62	42.37	2715.43	3136.31	4313.94	4356.01
4.270	530.17	43.98	2773.41	3188.11	3721.50	4357.46
4.280	532.27	43.28	1730.21	2963.05	3198.63	4316.64
4.290	--undefined--	40.19	1809.16	2854.11	3211.85	4396.45
4.300	--undefined--	38.50	1839.40	3097.52	3338.20	4005.94
4.310	--undefined--	38.03	439.15	3179.48	3485.58	3663.51
4.320	--undefined--	39.60	431.07	3192.24	3533.27	3834.04
4.330	401.65	44.00	439.45	3168.52	3217.82	4594.74
4.340	401.50	45.97	1483.53	3170.18	3216.46	4561.71
4.350	401.17	46.70	1368.97	3080.97	3195.97	4561.69
4.360	401.24	46.19	1772.61	2865.27	3321.50	4560.63
4.370	445.36	43.66	2726.15	3178.04	4478.58	4875.34
4.380	447.40	42.54	2724.80	2953.65	4279.91	4768.53
4.390	446.11	44.24	2322.07	2747.13	3244.40	4557.34
4.400	445.87	44.58	2158.28	2718.11	3203.36	4390.24
4.410	401.76	45.43	1521.87	2464.05	3041.90	3259.74
4.420	401.72	45.88	1277.20	2174.71	3200.09	3745.71
4.430	401.48	46.04	1279.85	2138.76	3204.56	3814.01
4.440	400.88	47.22	1280.73	2746.72	3059.82	3275.11
4.450	400.49	46.64	1273.48	1384.72	2965.75	3200.43
4.460	401.02	43.03	1274.22	2827.38	3201.28	4875.02
4.470	--undefined--	41.70	1274.93	2714.61	3112.05	4557.55
4.480	347.80	43.67	1488.61	2716.48	2955.18	4253.70
4.490	398.91	44.24	1792.29	2715.69	2848.41	4343.88
4.500	399.92	43.85	1781.32	2716.18	3190.15	4355.60
4.510	401.22	43.46	1426.18	2841.84	3435.17	4384.60
4.520	--undefined--	42.24	1327.90	1964.94	3797.22	4790.92
4.530	--undefined--	40.67	1318.96	1431.16	3198.72	4874.13
4.540	--undefined--	41.44	1401.74	1873.67	3200.62	4883.17
4.550	--undefined--	40.60	1668.62	2331.00	3205.29	4537.27
4.560	--undefined--	37.16	1808.11	2734.14	3215.54	4880.06
4.570	--undefined--	38.98	2257.37	3046.42	3214.48	4879.33
4.580	399.98	42.33	1834.07	3184.45	3240.06	4817.83
4.590	400.18	41.90	1797.62	3194.69	3202.40	4715.47
4.600	400.56	41.15	1798.32	3194.22	3427.80	4703.91
4.610	400.68	41.67	1827.69	3200.72	3640.63	4457.84
4.620	401.09	41.60	1758.59	3474.80	3647.24	4371.91
4.630	400.28	41.70	2091.80	3552.85	3689.68	4405.48
4.640	399.26	43.88	2847.58	3215.53	4053.79	4407.20
4.650	399.61	45.39	2137.05	2839.54	3202.61	4400.75
4.660	399.59	45.10	1799.84	2815.34	3201.69	4258.77
4.670	470.18	44.16	1796.68	2805.14	3197.87	3789.74
4.680	469.69	42.64	1399.84	2712.30	3150.25	3640.62
4.690	529.57	40.90	1274.76	2709.51	3065.15	3634.68
4.700	530.05	40.32	1226.66	2706.76	3183.18	4125.83
4.710	496.85	42.80	2711.02	3194.10	4555.04	--undefined--
4.720	421.91	45.45	2711.26	3179.84	3827.68	4596.81
4.730	401.35	46.41	2709.65	3126.16	3509.04	4701.63
4.740	401.17	46.09	2710.04	3188.88	3512.74	4553.92
4.750	400.80	45.74	2688.06	3019.96	3275.29	4646.87
4.760	400.29	45.88	1356.58	2855.13	3199.75	4055.75
4.770	529.81	45.04	1319.61	2760.27	3203.34	4390.30
4.780	526.68	44.12	2719.63	3084.67	3231.44	4590.39
4.790	525.79	42.84	2714.92	2761.45	3223.89	4558.42
4.800	--undefined--	39.70	2702.09	2967.09	3180.98	4566.14
4.810	--undefined--	37.82	2008.70	3073.82	3172.05	5019.72
4.820	--undefined--	39.96	2313.67	2722.51	3164.28	4661.00
4.830	216.30	41.97	2153.92	2558.18	3050.73	3525.29
4.840	216.33	41.89	2153.76	2576.53	2730.22	3205.36
4.850	--undefined--	41.30	2151.72	2545.76	2968.59	4354.75
4.860	--undefined--	40.07	2114.61	2770.06	2961.49	4551.28
4.870	--undefined--	39.09	2035.00	2793.47	3867.83	4540.56
4.880	--undefined--	39.35	330.09	2113.42	3177.89	4545.64
4.890	--undefined--	39.81	457.74	1471.79	3183.71	4472.97
4.900	--undefined--	41.08	455.17	2384.98	2922.20	3879.64
4.910	465.28	42.78	443.50	2130.09	2683.29	3202.12
4.920	466.48	43.35	441.26	2636.99	2714.26	3171.22
4.930	468.27	42.26	430.35	2700.12	2750.11	3167.39
4.940	468.52	41.85	672.71	2710.93	3068.44	4188.22
4.950	468.69	43.49	1279.94	2702.96	2740.72	4180.35
4.960	468.41	43.12	1278.59	2173.44	2721.30	3607.05
4.970	--undefined--	41.82	1280.16	1518.37	2720.07	3634.08
4.980	--undefined--	41.52	1280.54	1560.12	2721.11	3837.83
4.990	--undefined--	40.62	606.81	1762.57	2413.58	4338.14
5.000	--undefined--	38.43	930.98	1796.76	2714.37	4358.27
5.010	--undefined--	37.44	1745.31	2317.32	2718.56	4350.94
5.020	--undefined--	38.72	1284.39	1882.92	2724.99	4331.70
5.030	--undefined--	38.97	1280.65	2721.16	3189.56	4358.47
5.040	--undefined--	38.25	1284.07	2892.78	3201.87	3810.80
5.050	--undefined--	39.76	1352.49	3167.62	3224.64	4347.82
5.060	400.41	42.29	1624.23	3025.43	3206.74	4357.78
5.070	400.09	42.87	2023.97	2718.24	3198.59	4358.81
5.080	--undefined--	41.47	2712.94	2792.48	3206.90	4364.59
5.090	--undefined--	42.59	2706.01	2788.02	3210.36	4539.45
5.100	348.88	45.50	2711.25	3079.28	3358.59	4561.22
5.110	349.52	45.84	2720.44	3199.69	4438.04	4575.27
5.120	350.97	43.40	2724.91	3199.67	4568.99	4598.64
5.130	351.69	40.54	2713.35	3198.17	3645.82	4559.39
5.140	--undefined--	38.96	2605.17	2773.27	3228.70	4551.39
5.150	--undefined--	37.80	2232.35	2826.94	3208.61	4557.63
5.160	--undefined--	36.44	2133.37	2791.34	3202.18	4534.04
5.170	--undefined--	35.49	1188.98	2718.36	3178.39	4404.42
5.180	--undefined--	37.11	1200.68	2720.45	3191.17	4552.57
5.190	--undefined--	39.37	1238.57	2751.85	3200.74	4910.12
5.200	--undefined--	39.91	1584.77	2952.34	3204.86	4777.94
5.210	--undefined--	38.82	1578.49	3137.64	3217.32	4357.91
5.220	--undefined--	36.60	1062.31	3170.94	3226.99	4359.34
5.230	--undefined--	34.84	1292.90	3166.86	3547.42	4515.44
5.240	--undefined--	38.53	1850.67	3022.13	4481.02	4880.23
5.250	348.75	42.42	1760.30	2719.67	4791.85	4888.50
5.260	348.84	42.70	1798.66	2720.26	4611.44	4878.95
5.270	--undefined--	39.29	1798.11	2716.10	4423.09	4871.06
5.280	--undefined--	35.23	1814.30	3189.41	4379.69	4830.93
5.290	--undefined--	35.10	2971.13	3192.79	4591.66	--undefined--
5.300	--undefined--	36.60	1434.73	2466.00	3193.68	4083.83
5.310	--undefined--	36.10	1394.47	1794.89	3140.28	3251.86
5.320	--undefined--	34.27	1396.56	1800.08	3032.58	4171.33
5.330	--undefined--	36.49	1434.79	2223.62	3207.12	4381.10
5.340	--undefined--	40.17	2592.16	3144.67	3205.92	--undefined--
5.350	--undefined--	41.09	2710.37	2949.22	3205.54	--undefined--
5.360	--undefined--	40.06	2672.73	2939.69	3207.32	4391.82
5.370	--undefined--	39.27	1919.16	2695.99	3190.41	4391.01
5.380	234.36	41.70	284.36	1878.51	3155.94	4370.91
5.390	234.45	43.51	288.33	1877.41	3183.39	4405.03
5.400	234.40	42.09	285.01	1886.75	3160.18	4664.52
5.410	--undefined--	38.78	1295.10	3149.31	4438.73	4823.90
5.420	--undefined--	37.48	2703.91	3146.45	4385.71	4517.42
5.430	--undefined--	38.19	1767.82	2714.81	3203.00	4435.88
5.440	--undefined--	40.27	1867.26	2715.98	3187.56	4427.56
5.450	--undefined--	40.64	1869.59	2720.96	3223.98	4374.51
5.460	--undefined--	38.67	1859.75	2675.87	2908.32	4319.68
5.470	--undefined--	38.52	734.13	2088.48	3315.46	4374.86
5.480	--undefined--	38.97	286.90	1792.19	1946.81	3839.48
5.490	--undefined--	37.73	289.33	1786.30	1847.10	3869.32
5.500	--undefined--	37.33	1028.87	2463.59	3380.48	4638.81
5.510	--undefined--	38.99	1687.22	3194.31	4549.17	4563.40
5.520	228.26	42.42	1402.34	2889.26	3579.38	4521.45
5.530	228.24	43.19	1397.42	2731.88	3192.28	4444.75
5.540	228.20	41.84	1395.65	2727.43	3186.39	4542.67
5.550	399.89	43.46	1690.50	2630.23	2995.96	3222.06
5.560	399.74	44.85	1876.08	2645.51	3156.09	3209.38
5.570	400.25	43.46	1848.45	2515.56	3073.88	3210.88
5.580	468.13	41.45	1812.11	2291.30	2800.85	3171.38
5.590	--undefined--	40.16	1821.14	2116.80	2725.88	3022.92
5.600	--undefined--	40.73	1862.33	2520.91	2759.10	3206.07
5.610	400.12	43.32	401.84	1884.73	2749.87	3201.95
5.620	399.97	43.00	443.37	2131.57	2724.46	3199.08
5.630	--undefined--	40.18	1155.05	2870.34	3539.78	3961.82
5.640	351.63	41.88	2827.47	3198.01	4388.35	4555.91
5.650	351.65	43.39	600.19	2716.40	3202.47	4393.18
5.660	351.44	41.77	1130.04	2738.38	3212.87	4556.86
5.670	351.11	40.77	1230.28	3038.10	3211.94	4504.35
5.680	351.21	40.47	1791.05	3137.32	3220.97	--undefined--
5.690	401.20	41.18	1797.40	3091.93	3199.75	4396.34
5.700	400.86	43.93	1722.62	2443.05	3202.71	3817.76
5.710	400.82	44.50	1285.90	3173.29	3221.67	4395.65
5.720	400.71	42.19	1224.56	3169.92	3221.75	3687.07
5.730	--undefined--	40.11	1201.77	2735.33	3201.92	3220.31
5.740	--undefined--	39.36	1200.04	2729.07	3148.65	3208.78
5.750	--undefined--	37.88	1205.38	3165.34	3391.33	--undefined--
5.760	--undefined--	39.85	3191.34	3274.91	3822.34	--undefined--
5.770	--undefined--	41.57	3179.44	3238.26	4113.81	4377.92
5.780	--undefined--	41.05	3189.06	3243.99	4357.27	4711.99
5.790	--undefined--	39.32	3194.30	3526.47	4354.59	4659.16
5.800	--undefined--	40.79	2928.43	3496.10	4346.57	4676.35
5.810	399.82	42.98	2720.83	2867.76	4402.03	4720.95
5.820	399.84	43.62	2768.00	3158.70	4512.14	4816.56
5.830	400.43	43.36	2772.59	3195.81	3386.92	4876.60
5.840	402.31	43.23	2719.06	3192.90	3388.84	4879.30
5.850	403.73	42.32	2719.10	3193.12	3862.19	4876.68
5.860	--undefined--	40.68	2474.93	3148.54	4618.86	4875.38
5.870	--undefined--	39.21	284.12	3018.73	3206.69	4874.47
5.880	--undefined--	37.53	841.37	2465.38	3190.86	3740.01
5.890	--undefined--	38.80	2156.12	2786.99	3209.88	4849.39
5.900	--undefined--	42.02	2204.41	2724.83	4021.64	4861.27
5.910	466.45	44.40	2667.38	2761.06	4353.87	4580.76
5.920	464.73	43.97	2268.39	2604.92	3534.42	4574.69
5.930	--undefined--	41.68	1924.67	2628.20	3172.63	4548.92
5.940	--undefined--	39.09	1867.70	2564.43	3111.40	4489.07
5.950	--undefined--	37.76	1166.25	1832.03	2914.47	4410.56
5.960	--undefined--	39.25	1171.83	1647.78	2878.38	4323.60
5.970	--undefined--	39.36	1158.59	2832.84	3208.01	4409.04
5.980	--undefined--	40.07	1592.25	3106.97	3581.49	4537.55
5.990	349.06	40.49	2643.55	3196.78	4468.59	4522.50
6.000	--undefined--	38.92	2761.22	2954.60	4486.71	4620.08
6.010	--undefined--	39.97	2707.70	2826.46	4359.14	4880.56
6.020	248.13	44.72	2700.32	2764.07	4392.07	4877.63
6.030	248.05	47.32	2708.70	2778.24	3305.94	4873.67
6.040	248.10	46.72	517.97	2725.46	3055.73	3330.01
6.050	248.20	43.34	1186.61	2955.58	3180.28	4822.16
6.060	--undefined--	40.77	1195.97	2905.20	3192.37	4549.90
6.070	--undefined--	39.03	1169.71	1790.08	3193.74	4433.62
6.080	--undefined--	37.24	1189.73	1800.45	3276.93	4386.18
6.090	--undefined--	39.35	854.94	2749.22	3219.90	4327.29
6.100	--undefined--	40.42	2715.16	3184.64	3702.88	4373.83
6.110	--undefined--	39.98	2165.72	2722.60	3200.19	4358.99
6.120	--undefined--	39.15	2038.26	2787.05	3314.48	4338.16
6.130	--undefined--	38.40	1839.77	2359.68	3143.95	3642.93
6.140	--undefined--	39.01	2063.13	2844.52	3217.49	4193.50
6.150	444.08	41.69	1279.32	2590.01	2986.75	3829.91
6.160	443.90	42.71	1277.24	1842.30	2870.43	3564.54
6.170	--undefined--	41.54	1276.57	1877.39	3188.14	3541.26
6.180	--undefined--	40.56	1278.00	1878.13	3009.87	3196.63
6.190	--undefined--	40.65	1270.18	1875.89	3173.78	3219.22
6.200	--undefined--	40.19	717.75	2471.30	3195.15	3888.75
6.210	--undefined--	40.19	1126.52	2991.77	3229.02	4493.83
6.220	444.19	42.35	454.38	1214.45	3197.17	4199.28
6.230	444.01	42.29	459.76	1290.20	2857.71	4351.34
6.240	--undefined--	39.28	756.65	1670.05	2642.22	4346.98
6.250	--undefined--	37.10	786.01	1798.47	3052.84	4346.88
6.260	--undefined--	36.37	1690.58	3118.24	4250.72	4673.52
6.270	--undefined--	36.59	581.19	2630.58	3173.34	4426.45
6.280	--undefined--	38.35	1152.69	2717.05	2723.68	4422.66
6.290	--undefined--	39.08	1190.80	2707.40	2796.26	4401.94
6.300	--undefined--	38.99	1198.95	2753.93	3084.57	4269.76
6.310	399.85	41.54	1215.74	2932.16	3202.61	3502.71
6.320	399.71	43.92	1688.00	3169.55	3225.08	4397.24
6.330	399.75	44.54	1797.68	3183.95	3569.93	4511.52
6.340	399.90	45.37	1795.06	3191.88	4416.28	4870.36
6.350	444.04	45.25	1098.63	1795.34	3195.66	4688.84
6.360	444.34	43.20	1626.97	1798.02	3197.62	4557.64
6.370	444.58	42.81	1474.10	1797.84	3194.15	4567.14
6.380	380.28	44.25	1725.51	2493.10	3979.44	4550.63
6.390	347.67	44.37	1333.01	1829.61	2759.12	4431.40
6.400	347.33	44.42	1810.87	2439.13	3010.39	4548.82
6.410	347.50	44.13	693.99	2194.46	2906.47	4520.78
6.420	--undefined--	41.67	2158.24	2720.34	3843.08	4875.72
6.430	--undefined--	38.61	1736.71	2693.61	2733.47	4676.90
6.440	400.43	41.77	297.82	2689.28	2746.08	4395.99
6.450	400.25	45.22	393.19	1990.33	2739.22	4395.55
6.460	400.43	45.12	437.62	1293.53	2683.31	4370.12
6.470	400.52	42.77	484.68	1169.60	2198.00	4369.38
6.480	400.41	41.16	1015.32	2466.52	3440.78	4417.36
6.490	400.35	42.62	2215.06	3196.35	4314.57	4446.08
6.500	348.98	44.40	3149.09	3213.10	4435.35	4567.02
6.510	349.64	43.94	149.19	3124.45	3198.07	4538.59
6.520	381.00	42.79	403.64	2999.44	3197.65	4538.11
6.530	420.90	42.67	1975.66	3190.91	4541.97	4569.26
6.540	469.52	41.11	1692.74	2636.81	4508.34	4554.62
6.550	--undefined--	37.58	1527.76	2547.04	4402.81	4560.64
6.560	571.75	39.29	1200.53	1496.01	4525.39	4581.20
6.570	569.48	42.09	1138.77	1206.30	3267.34	4554.22
6.580	--undefined--	41.47	1197.21	1412.71	2719.81	4506.88
6.590	--undefined--	39.04	1204.65	2630.72	2835.65	4544.07
6.600	--undefined--	36.72	2507.87	2757.66	3182.93	4423.35
6.610	--undefined--	35.50	2664.19	3034.37	3199.91	4359.66
6.620	--undefined--	34.25	1372.91	2860.11	3200.95	4361.37
6.630	--undefined--	37.59	1279.66	2706.62	3193.53	4510.07
6.640	470.44	41.98	1291.36	2659.35	3155.58	4570.97
6.650	470.63	43.62	1263.20	2522.17	3190.84	4236.45
6.660	470.45	41.82	1395.57	3018.45	3886.42	4779.42
6.670	--undefined--	39.08	1382.82	1654.86	3201.51	4133.42
6.680	--undefined--	36.62	1371.73	1786.92	3190.03	4546.72
6.690	--undefined--	37.57	448.32	1803.67	3193.76	3520.05
6.700	--undefined--	40.36	1355.52	2722.82	3198.80	4389.04
6.710	--undefined--	41.27	1281.20	2705.80	3135.58	3638.27
6.720	159.84	41.80	1367.33	2660.40	2715.01	3176.25
6.730	159.87	41.62	1329.37	1427.36	2750.81	3203.25
6.740	--undefined--	38.60	1319.67	1522.13	3160.25	3281.53
6.750	--undefined--	34.82	1278.19	2631.55	3198.54	4276.93
6.760	--undefined--	37.68	1392.91	2763.37	3223.46	4559.98
6.770	--undefined--	40.93	2715.37	3196.66	3576.13	4528.53
6.780	400.27	42.71	2772.07	3170.74	3236.50	4385.04
6.790	400.93	42.22	2792.40	3054.90	3200.87	4408.83
6.800	--undefined--	39.53	399.05	2795.40	3198.41	3935.41
6.810	--undefined--	40.37	624.54	2875.16	3321.85	4451.27
6.820	349.84	42.10	3030.14	3200.33	4432.84	4558.96
6.830	348.74	41.78	3125.21	3203.86	4443.12	4541.79
6.840	--undefined--	41.03	1410.77	3185.37	4404.96	4494.12
6.850	--undefined--	40.90	720.32	1818.28	4392.49	4420.81
6.860	294.50	41.39	1199.76	2993.34	4261.82	4395.80
6.870	294.75	39.91	1198.16	2959.78	3274.67	4397.00
6.880	--undefined--	38.40	848.08	2797.64	3036.26	4204.59
6.890	228.37	41.18	2448.53	2755.66	4213.16	4343.76
6.900	228.38	44.05	2714.93	2746.64	3235.29	4360.05
6.910	228.42	44.30	2717.59	2877.07	3203.90	4388.81
6.920	228.33	42.20	2225.18	2815.35	3210.17	4656.99
6.930	--undefined--	41.53	1805.90	2758.92	3207.03	4293.58
6.940	399.55	44.41	1798.54	2748.09	3198.52	4089.33
6.950	399.19	45.30	1799.23	2771.43	3195.10	4358.69
6.960	398.54	43.01	1794.59	2770.23	3265.21	4403.89
6.970	--undefined--	40.96	1797.71	2788.37	4382.01	4818.97
6.980	400.70	42.74	1476.38	1799.72	2770.16	4385.67
6.990	400.94	43.61	1410.08	1842.46	2801.10	4390.69
7.000	400.49	43.84	1400.95	1678.79	2796.13	4382.64
7.010	400.00	43.70	1541.99	2799.11	4374.22	4420.30
7.020	399.63	40.89	2752.21	3183.96	4389.51	4431.15
7.030	--undefined--	39.42	2842.57	3197.66	4381.45	4402.26
7.040	--undefined--	39.58	3132.07	3206.23	4370.90	4423.79
7.050	--undefined--	38.38	3125.73	3208.32	4394.38	4633.84
7.060	400.59	40.35	2159.06	3155.18	3326.02	4410.50
7.070	400.15	41.92	2064.89	3195.17	3553.74	4863.76
7.080	399.41	41.72	1259.10	1836.90	3196.92	4078.82
7.090	--undefined--	39.94	1212.07	1806.18	2927.05	4568.43
7.100	--undefined--	38.59	1121.32	1770.53	2843.52	4259.67
7.110	--undefined--	40.41	1445.05	2572.53	3152.71	4561.92
7.120	401.19	44.42	1713.57	2637.38	3186.79	4419.79
7.130	400.98	46.75	1708.63	2687.97	3202.87	4354.61
7.140	400.49	46.44	1275.80	2707.16	3204.95	4356.34
7.150	400.01	44.38	1859.80	2887.57	3352.00	4471.30
7.160	400.00	41.52	2617.06	2767.79	4541.12	4721.34
7.170	--undefined--	38.10	1393.13	2884.28	4431.47	4740.90
7.180	--undefined--	35.70	1194.77	2719.05	3963.91	4699.91
7.190	--undefined--	37.13	1178.73	2697.68	2956.75	4395.68
7.200	--undefined--	39.17	2052.69	3030.86	3764.44	4593.19
7.210	--undefined--	40.72	2894.50	3202.33	4374.32	4701.55
7.220	532.14	43.42	2164.08	3087.23	3306.55	4743.30
7.230	533.70	45.82	2146.63	2240.91	3199.76	4861.11
7.240	535.33	47.01	2155.82	2436.48	3205.54	4801.50
7.250	536.11	46.13	2076.31	2182.90	3193.97	4350.55
7.260	349.92	45.26	2065.40	2295.76	3198.36	4545.38
7.270	349.63	44.98	1161.21	2869.32	3195.56	4550.19
7.280	349.64	44.26	1026.37	3141.70	3204.48	4550.79
7.290	531.43	43.86	422.71	3170.54	3215.27	4546.85
7.300	531.75	43.62	3117.01	3204.12	4250.43	5065.34
7.310	532.57	43.35	1135.64	2753.36	3191.41	4873.83
7.320	530.33	43.57	1251.24	2727.08	3198.86	4133.28
7.330	528.62	43.92	1237.93	2670.01	3200.81	4719.39
7.340	498.83	45.78	2395.55	3110.22	4274.93	4992.09
7.350	444.21	47.77	2713.74	3366.28	4034.08	4721.42
7.360	444.21	48.12	2708.17	2783.21	3644.03	4396.78
7.370	469.84	47.36	1128.58	2720.85	3178.74	3769.47
7.380	469.50	46.56	442.16	2707.30	2746.57	3208.10
7.390	554.64	45.64	442.47	2696.65	2740.19	3212.64
7.400	524.84	45.26	1568.87	2795.79	3026.19	3785.85
7.410	525.77	43.94	2700.63	3055.12	3204.25	4434.22
7.420	--undefined--	38.93	2709.23	3136.33	3200.25	4827.86
7.430	--undefined--	33.62	2718.00	3193.79	4399.62	5271.47
7.440	--undefined--	36.06	1539.63	2787.79	4357.33	5009.13
7.450	--undefined--	39.14	1400.50	3143.23	4333.76	4790.24
7.460	--undefined--	41.93	1413.46	2756.91	3167.40	4351.04
7.470	529.27	44.58	2350.49	2978.73	3191.24	4355.99
7.480	532.97	44.94	2713.16	3130.51	3200.67	4360.20
7.490	530.11	43.17	2725.54	3192.28	3271.25	4384.50
7.500	468.78	42.59	2737.88	3180.15	3301.94	4394.88
7.510	468.64	42.15	1114.11	2717.31	3190.62	4355.75
7.520	401.22	41.16	1199.38	1898.06	2855.62	4354.68
7.530	400.43	40.90	1187.87	1235.85	2762.41	4353.39
7.540	399.89	41.79	1187.37	1207.09	3152.72	3542.79
7.550	399.72	42.56	1211.96	3150.94	3212.91	4821.43
7.560	--undefined--	40.37	1900.19	3163.57	3320.20	4359.08
7.570	--undefined--	36.25	3064.95	3200.38	4286.72	4359.97
7.580	--undefined--	37.28	2557.43	3199.44	4216.59	4380.00
7.590	--undefined--	39.94	2277.97	3168.27	3280.72	4406.87
7.600	--undefined--	40.66	2359.68	2904.89	3204.34	4535.47
7.610	--undefined--	40.63	1964.07	2693.22	3206.49	4575.87
7.620	--undefined--	40.08	1278.28	2700.23	3206.91	4590.95
7.630	--undefined--	40.47	1277.12	1796.79	3198.37	4482.87
7.640	--undefined--	40.18	1275.78	2556.92	3113.82	4405.82
7.650	--undefined--	41.87	1297.17	2729.03	3099.56	3846.64
7.660	466.86	44.23	1371.93	2485.08	3110.35	3525.90
7.670	467.33	43.40	1337.26	2795.24	3553.60	4196.20
7.680	--undefined--	40.61	1324.48	3180.70	3269.89	4434.24
7.690	--undefined--	40.73	1321.78	3176.53	3229.51	4529.60
7.700	350.13	42.57	1168.05	3195.07	3837.98	4427.40
7.710	350.80	43.61	1195.28	3149.89	4250.74	4407.33
7.720	350.99	43.81	663.47	2730.04	3187.87	4355.55
7.730	350.92	42.13	440.64	2714.16	3159.16	4557.02
7.740	350.37	41.38	490.98	2785.52	3193.55	4410.11
7.750	350.55	42.28	1174.19	2957.87	3197.53	4539.68
7.760	295.79	43.60	1197.64	2861.47	3125.96	4369.45
7.770	296.03	46.17	1199.76	2732.91	3071.98	4116.04
7.780	181.41	46.48	1086.03	2717.63	3031.70	3843.61
7.790	181.33	43.75	484.89	2686.62	2746.79	4470.41
7.800	--undefined--	40.02	442.77	2707.87	2907.26	4400.91
7.810	--undefined--	38.53	434.20	2709.26	4397.76	4868.90
7.820	--undefined--	39.61	2014.97	2962.83	4380.50	4968.82
7.830	--undefined--	40.97	2659.18	2722.72	3191.52	4441.88
7.840	--undefined--	40.37	2685.07	2735.98	3200.92	4852.63
7.850	--undefined--	39.98	2167.02	2731.29	3386.15	4875.92
7.860	--undefined--	41.01	1770.94	2713.16	3151.45	4583.78
7.870	227.99	40.94	1800.41	2716.52	3195.21	4362.68
7.880	227.75	41.31	2252.67	2770.24	3193.68	4367.35
7.890	227.71	41.31	2716.47	2889.61	3205.48	4445.35
7.900	--undefined--	38.11	2337.38	2778.89	3200.14	4541.54
7.910	--undefined--	32.51	1875.77	2658.28	3206.58	4557.90
7.920	--undefined--	35.51	1804.28	1932.02	3198.39	4555.53
7.930	348.19	42.44	1182.58	2274.13	3556.00	4648.77
7.940	348.16	45.85	2873.41	3197.87	4396.82	4881.01
7.950	400.29	45.45	3155.60	3238.40	4396.19	5142.02
7.960	443.41	43.58	2677.69	3199.18	4371.17	5312.87
7.970	443.59	41.38	2712.58	3195.33	4373.87	5313.77
7.980	--undefined--	37.56	2712.69	3200.98	4084.36	5117.17
7.990	--undefined--	35.93	1585.96	2797.40	3217.86	4355.13
8.000	--undefined--	38.32	1399.23	2717.18	3192.63	4284.62
8.010	468.32	42.14	1395.60	2719.35	3149.56	4360.05
8.020	468.16	44.38	1397.73	2723.92	3172.97	4362.94
8.030	531.64	45.65	1397.10	2474.77	2761.79	3194.59
8.040	534.62	46.45	2011.95	2714.87	3081.81	4419.31
8.050	533.47	45.78	1800.14	2713.03	3121.93	4555.06
8.060	533.19	42.09	1765.81	2616.42	3162.69	4395.87
8.070	--undefined--	34.62	1452.63	2426.76	3055.19	4038.44
8.080	--undefined--	33.28	1725.78	2866.70	3612.01	4542.82
8.090	228.14	40.71	2850.21	3204.33	4552.89	4785.65
8.100	227.90	44.01	2955.38	3200.69	4550.33	4821.03
8.110	227.85	42.85	2716.49	3198.53	4461.05	4654.27
8.120	227.90	41.04	2712.03	3095.41	3623.25	4504.79
8.130	228.20	41.12	2713.17	3191.88	3753.50	4545.01
8.140	228.35	40.15	2774.32	3201.29	3620.10	4548.85
8.150	--undefined--	37.85	1815.83	3373.77	3798.08	4236.04
8.160	401.56	41.39	440.32	2802.47	3210.67	3697.02
8.170	401.60	45.03	446.57	2741.47	3185.13	4187.77
8.180	401.53	45.58	1265.28	2742.35	3184.92	4674.44
8.190	382.93	43.57	1283.20	2727.09	3195.46	4555.64
8.200	398.15	42.59	1301.44	1951.23	2992.97	3945.64
8.210	398.29	44.25	1277.27	1576.18	2735.36	4377.21
8.220	399.11	46.67	1277.75	2716.46	3065.32	4380.25
8.230	470.50	48.88	1248.15	2710.20	3197.35	4420.04
8.240	470.72	48.57	1196.10	2703.20	3199.47	3865.88
8.250	448.09	46.18	1282.83	2637.61	2724.75	3187.23
8.260	469.51	44.43	1396.86	2164.18	2763.06	3144.50
8.270	469.01	44.66	1399.26	2730.29	3196.70	4274.17
8.280	400.04	44.97	1890.62	3155.30	3553.33	4558.02
8.290	400.01	44.22	2963.48	3198.96	3686.59	4558.33
8.300	400.34	42.31	2884.71	3105.53	3222.44	4557.61
8.310	400.37	40.55	2702.91	2965.01	3207.75	4541.22
8.320	400.50	42.51	2576.94	2843.99	3184.73	3223.72
8.330	351.09	44.43	2612.98	2838.68	3184.09	3221.73
8.340	337.05	43.05	2711.05	2888.63	3205.52	4053.19
8.350	--undefined--	39.64	2430.80	2922.33	3170.80	3679.34
8.360	--undefined--	39.48	1889.49	3068.15	3223.96	--undefined--
8.370	--undefined--	42.27	262.22	2158.52	3170.37	3229.29
8.380	468.71	43.70	291.10	2148.27	2774.17	3200.20
8.390	468.84	44.71	1181.10	2325.75	2719.19	3203.45
8.400	468.68	44.78	1279.35	2719.74	3001.82	3200.10
8.410	468.52	44.29	1313.22	2723.43	3200.46	4074.77
8.420	468.31	42.99	1398.30	2642.85	3198.73	4358.07
8.430	--undefined--	40.53	1398.56	2703.59	3199.01	4354.79
8.440	--undefined--	41.24	1386.92	2710.42	3136.19	4313.28
8.450	--undefined--	40.84	2702.78	2800.15	4370.04	4425.44
8.460	--undefined--	36.79	277.47	2711.02	3155.99	4405.81
8.470	--undefined--	37.20	267.46	2702.72	2887.33	3544.87
8.480	--undefined--	39.55	2701.18	2760.57	3204.47	--undefined--
8.490	--undefined--	40.48	2567.28	2721.85	3199.47	3901.76
8.500	468.32	41.86	1404.53	2799.84	3204.49	4255.51
8.510	468.58	41.93	1400.31	2145.14	3201.52	4381.95
8.520	--undefined--	41.06	1399.57	1614.59	3183.58	4361.33
8.530	--undefined--	41.48	1399.49	3191.66	3763.02	4207.57
8.540	--undefined--	41.65	1399.06	2815.66	3351.34	4392.52
8.550	--undefined--	41.17	853.60	2064.72	3558.09	4532.46
8.560	--undefined--	39.24	202.77	1528.56	2792.08	4217.92
8.570	--undefined--	39.36	560.77	2686.28	3153.89	4397.36
8.580	--undefined--	40.87	2712.61	3157.40	4206.19	5013.93
8.590	--undefined--	39.99	2161.71	2765.21	3256.58	4401.04
8.600	--undefined--	37.75	1734.02	2727.79	3201.51	4402.73
8.610	--undefined--	37.95	2689.34	2729.06	3206.84	--undefined--
8.620	--undefined--	39.96	2701.18	2789.71	3204.31	4752.47
8.630	527.38	43.11	2717.29	3200.72	3364.60	4726.78
8.640	527.27	44.48	2998.63	3199.98	4328.10	4685.25
8.650	527.72	44.07	2936.19	3199.20	4353.76	4881.35
8.660	528.46	43.68	2615.73	3145.80	4292.24	4899.57
8.670	--undefined--	41.31	1779.72	3021.11	3391.79	4950.46
8.680	--undefined--	39.24	1083.30	2022.24	3188.22	4391.75
8.690	--undefined--	39.94	1797.82	2682.99	3151.77	4399.06
8.700	--undefined--	38.46	1404.32	2179.48	3562.10	4429.07
8.710	--undefined--	37.75	1060.42	1395.49	3180.07	4391.91
8.720	--undefined--	38.69	1398.45	2665.55	3272.62	4396.72
8.730	--undefined--	39.15	1401.54	3193.82	3442.91	4396.31
8.740	469.81	41.15	2831.29	3196.18	4420.87	4758.71
8.750	469.33	42.84	390.78	3128.70	3202.03	4555.63
8.760	496.65	41.42	2760.19	3196.10	4552.63	4874.88
8.770	--undefined--	38.44	562.12	3193.03	4522.87	4879.50
8.780	--undefined--	39.40	281.01	3042.13	4004.66	4727.61
8.790	286.01	41.53	292.46	1952.82	3066.55	4351.58
8.800	277.15	41.64	1388.24	2792.81	4130.01	4704.86
8.810	267.33	42.09	1398.90	2627.05	2724.13	4559.23
8.820	--undefined--	41.64	1414.92	2062.55	2727.52	4527.31
8.830	--undefined--	40.01	1318.46	2161.32	2760.46	4360.58
8.840	--undefined--	38.01	492.55	2710.55	2772.81	4345.70
8.850	--undefined--	36.29	443.75	2666.15	2732.06	4357.18
8.860	--undefined--	37.51	439.40	1408.87	2724.29	4555.41
8.870	--undefined--	39.21	1090.58	1738.96	2724.80	4556.85
8.880	--undefined--	41.15	1538.79	2120.81	2729.66	4775.61
8.890	--undefined--	41.95	1877.44	2682.01	2726.89	5306.85
8.900	--undefined--	40.21	1875.80	2717.07	3165.67	4968.25
8.910	--undefined--	38.77	395.78	2020.30	3324.70	4438.92
8.920	--undefined--	38.43	746.34	2859.23	3590.09	4735.74
8.930	--undefined--	36.94	1973.76	2778.97	4142.53	4834.24
8.940	--undefined--	37.84	213.80	2698.09	2752.07	4671.32
8.950	215.77	42.98	322.08	2676.09	2740.72	4507.78
8.960	209.80	45.90	444.01	2714.34	4260.70	4543.55
8.970	209.85	45.68	441.62	2709.75	3128.44	4399.57
8.980	209.71	44.82	443.34	2713.71	3156.77	4393.91
8.990	209.53	45.12	311.89	2714.53	3119.06	4344.86
9.000	227.98	45.40	2711.69	2858.36	4088.92	4488.54
9.010	228.16	44.73	2712.92	3100.17	3252.87	4386.93
9.020	228.24	41.81	2713.92	3192.38	4374.35	4484.43
9.030	--undefined--	37.82	2914.92	3196.13	4487.31	4641.64
9.040	--undefined--	38.71	2958.41	3128.31	4513.96	4852.32
9.050	--undefined--	41.20	3078.84	3185.20	4354.71	4819.99
9.060	394.68	42.88	3167.47	3219.48	4352.01	4491.88
9.070	399.42	43.62	2786.21	3181.09	3556.61	4475.23
9.080	401.42	42.34	682.39	2537.74	3011.77	3202.38
9.090	402.09	41.86	473.64	2214.38	2751.91	3244.57
9.100	402.64	42.34	445.50	2226.73	3167.61	4313.15
9.110	400.84	44.65	442.77	3109.27	3185.94	4391.26
9.120	351.72	46.38	451.26	3158.74	3207.84	4397.96
9.130	351.82	45.59	1171.99	3182.06	3244.43	4498.27
9.140	351.67	41.87	1218.83	3190.05	3550.19	4555.27
9.150	--undefined--	38.31	1199.90	2939.44	3312.63	4408.99
9.160	--undefined--	40.00	1255.77	2516.44	2696.19	3208.61
9.170	285.88	44.75	1737.04	2461.57	3050.38	4136.16
9.180	285.82	48.51	1869.67	2710.10	3193.94	4550.86
9.190	285.71	49.52	1875.01	2736.53	3194.50	4555.72
9.200	285.67	47.39	1844.10	2793.87	3856.63	4710.05
9.210	285.68	42.27	1736.51	3062.48	4261.98	4825.18
9.220	--undefined--	36.90	1260.59	1798.61	3197.40	4359.82
9.230	--undefined--	38.01	1272.97	1800.74	2742.77	4347.92
9.240	--undefined--	40.96	1234.33	1738.74	2713.57	4359.16
9.250	--undefined--	40.90	1229.66	2326.78	3536.72	4841.49
9.260	--undefined--	39.49	969.06	2122.45	2736.90	4362.50
9.270	--undefined--	39.85	1294.91	2704.95	2814.57	4389.14
9.280	368.38	44.17	1279.83	1878.03	2639.12	4392.98
9.290	368.49	46.81	1603.58	1792.44	1941.00	4390.85
9.300	368.24	44.96	1821.33	1891.07	3828.90	4463.36
9.310	365.49	41.09	1336.40	1942.52	3307.64	4417.88
9.320	364.59	41.26	1805.59	3200.90	4154.21	4479.62
9.330	400.23	44.75	961.33	2692.27	3206.52	4251.17
9.340	400.02	47.54	1273.00	2715.76	3205.51	4393.03
9.350	380.94	46.84	1275.70	2718.34	3199.83	4554.17
9.360	381.16	42.17	1276.24	2647.63	2722.07	4555.22
9.370	--undefined--	37.99	1350.00	2587.35	3056.84	4513.23
9.380	401.20	40.55	1399.73	3189.60	3293.47	4359.43
9.390	401.29	42.71	1399.70	3191.89	4091.57	4359.62
9.400	401.58	43.28	1063.77	2253.17	3192.88	4350.53
9.410	--undefined--	41.74	1870.37	2918.75	3186.52	4373.25
9.420	--undefined--	38.68	2707.65	2946.69	3184.75	4587.87
9.430	--undefined--	36.78	2651.68	2728.91	3087.25	4541.86
9.440	--undefined--	37.39	2689.00	2756.25	3203.73	4360.27
9.450	--undefined--	39.47	2590.01	2738.70	3201.26	4357.99
9.460	--undefined--	38.55	2172.94	2729.30	3172.21	4347.60
9.470	--undefined--	38.30	1138.10	2351.99	3173.42	4340.19
9.480	--undefined--	38.68	2130.65	3185.04	4359.06	4418.17
9.490	--undefined--	36.05	1761.91	3188.44	4392.81	4415.65
9.500	--undefined--	35.97	1686.55	3218.66	4354.32	4370.33
9.510	--undefined--	40.01	3132.72	3319.76	4197.59	4367.58
9.520	--undefined--	41.40	1950.66	2855.09	3347.95	3906.89
9.530	--undefined--	41.72	1868.56	2726.24	3227.45	3859.83
9.540	400.68	43.89	1873.62	2397.80	2764.82	3339.24
9.550	401.23	44.53	1877.45	2718.26	3203.23	4550.37
9.560	401.49	41.44	1879.32	2727.63	3243.61	4442.42
9.570	--undefined--	38.70	1879.67	2752.39	4164.78	4717.31
9.580	--undefined--	42.02	1954.10	2893.63	4375.26	4565.52
9.590	181.82	44.10	2647.31	3217.83	4345.53	4414.46
9.600	181.71	43.18	2714.15	2952.49	4360.45	4817.76
9.610	181.48	43.05	2689.97	2737.58	4358.15	4879.05
9.620	181.62	44.88	2687.04	2735.90	4349.49	4887.91
9.630	181.69	44.18	2684.00	2738.55	4353.12	4548.22
9.640	--undefined--	39.34	2661.31	2721.24	4340.24	4444.57
9.650	--undefined--	30.42	2007.11	2787.65	4341.37	4517.28
9.660	--undefined--	29.22	1822.13	3167.59	4384.50	4521.25
9.670	--undefined--	37.58	2379.80	3197.39	4393.04	4563.08
9.680	255.51	42.62	2886.35	3205.82	4427.97	4565.55
9.690	255.22	44.65	3165.58	3201.70	4545.86	4935.48
9.700	254.87	45.16	1582.61	3162.30	3228.90	4459.79
9.710	247.39	44.87	1930.33	3183.71	3346.64	4370.73
9.720	247.43	43.51	3177.28	3222.20	4355.57	4680.25
9.730	--undefined--	39.60	3195.76	3205.13	4374.04	4859.76
9.740	--undefined--	36.61	2779.02	3199.70	4630.90	4863.48
9.750	--undefined--	37.37	2718.37	3199.75	4259.23	4739.44
9.760	227.88	39.83	2716.59	3199.59	3524.40	4531.80
9.770	228.15	41.87	2733.48	3201.52	4370.05	4680.96
9.780	228.21	42.38	2615.24	3180.44	4409.44	4699.98
9.790	228.25	42.29	2710.96	3160.62	4542.24	4581.70
9.800	228.29	42.55	2711.60	3000.78	3227.32	4555.82
9.810	227.96	42.54	2640.70	3035.00	3195.02	3675.57
9.820	--undefined--	40.94	2020.93	2757.23	2957.73	3462.13
9.830	--undefined--	39.74	2037.03	2716.95	3208.23	4876.04
9.840	--undefined--	40.02	2034.63	2709.97	3149.35	4879.78
9.850	--undefined--	39.55	1453.57	2945.74	3199.16	4559.96
9.860	399.32	39.79	1255.17	2729.38	3198.37	4355.64
9.870	--undefined--	40.19	1276.08	2728.39	3176.66	4369.99
9.880	--undefined--	40.30	1274.52	2799.64	2899.57	4380.56
9.890	--undefined--	40.99	2591.91	3072.36	3756.53	4539.37
9.900	--undefined--	40.60	2714.59	3190.04	4080.10	4553.97
9.910	--undefined--	40.01	2668.19	3191.37	3265.45	4550.99
9.920	--undefined--	38.19	1779.40	3171.18	3226.19	4556.88
9.930	--undefined--	36.57	1228.64	2701.16	3502.15	4533.00
9.940	--undefined--	41.91	1201.90	2234.87	3151.60	3291.86
9.950	562.33	45.70	1191.35	1786.57	2718.35	3204.52
9.960	562.33	45.27	1278.31	1881.04	2716.98	3597.39
9.970	--undefined--	42.60	900.22	1310.74	2718.49	4557.58
9.980	--undefined--	--undefined--	--undefined--	--undefined--	--undefined--	--undefined--
9.990	--undefined--	--undefined--	--undefined--	--undefined--	--undefined--	--undefined--
10.000	--undefined--	--undefined--	--undefined--	--undefined--	--undefined--	--undefined--
